Created as New Dataset,Sample 044 By irlear Date Thursday, January 08 2009
cm-1,A
4000.00,0.0185
3999.75,0.0185
3999.50,0.0184
3999.25,0.0183
3999.00,0.0183
3998.75,0.0182
3998.50,0.0181
3998.25,0.0182
3998.00,0.0184
3997.75,0.0186
3997.50,0.0188
3997.25,0.0189
3997.00,0.0188
3996.75,0.0186
3996.50,0.0184
3996.25,0.0182
3996.00,0.0181
3995.75,0.0181
3995.50,0.0183
3995.25,0.0184
3995.00,0.0186
3994.75,0.0187
3994.50,0.0188
3994.25,0.0189
3994.00,0.0189
3993.75,0.0190
3993.50,0.0189
3993.25,0.0189
3993.00,0.0188
3992.75,0.0186
3992.50,0.0185
3992.25,0.0185
3992.00,0.0186
3991.75,0.0187
3991.50,0.0187
3991.25,0.0187
3991.00,0.0187
3990.75,0.0186
3990.50,0.0185
3990.25,0.0184
3990.00,0.0184
3989.75,0.0185
3989.50,0.0186
3989.25,0.0188
3989.00,0.0189
3988.75,0.0190
3988.50,0.0189
3988.25,0.0188
3988.00,0.0186
3987.75,0.0184
3987.50,0.0183
3987.25,0.0182
3987.00,0.0182
3986.75,0.0182
3986.50,0.0183
3986.25,0.0184
3986.00,0.0185
3985.75,0.0185
3985.50,0.0186
3985.25,0.0185
3985.00,0.0185
3984.75,0.0184
3984.50,0.0184
3984.25,0.0183
3984.00,0.0183
3983.75,0.0183
3983.50,0.0182
3983.25,0.0183
3983.00,0.0183
3982.75,0.0184
3982.50,0.0186
3982.25,0.0188
3982.00,0.0189
3981.75,0.0189
3981.50,0.0189
3981.25,0.0188
3981.00,0.0187
3980.75,0.0187
3980.50,0.0187
3980.25,0.0187
3980.00,0.0187
3979.75,0.0186
3979.50,0.0185
3979.25,0.0184
3979.00,0.0182
3978.75,0.0182
3978.50,0.0184
3978.25,0.0185
3978.00,0.0187
3977.75,0.0188
3977.50,0.0188
3977.25,0.0187
3977.00,0.0186
3976.75,0.0185
3976.50,0.0184
3976.25,0.0184
3976.00,0.0184
3975.75,0.0185
3975.50,0.0187
3975.25,0.0188
3975.00,0.0188
3974.75,0.0188
3974.50,0.0187
3974.25,0.0186
3974.00,0.0186
3973.75,0.0186
3973.50,0.0186
3973.25,0.0187
3973.00,0.0187
3972.75,0.0187
3972.50,0.0187
3972.25,0.0186
3972.00,0.0185
3971.75,0.0185
3971.50,0.0184
3971.25,0.0184
3971.00,0.0184
3970.75,0.0184
3970.50,0.0183
3970.25,0.0183
3970.00,0.0182
3969.75,0.0182
3969.50,0.0181
3969.25,0.0181
3969.00,0.0182
3968.75,0.0183
3968.50,0.0183
3968.25,0.0184
3968.00,0.0184
3967.75,0.0185
3967.50,0.0185
3967.25,0.0186
3967.00,0.0186
3966.75,0.0186
3966.50,0.0186
3966.25,0.0186
3966.00,0.0187
3965.75,0.0187
3965.50,0.0187
3965.25,0.0187
3965.00,0.0187
3964.75,0.0187
3964.50,0.0187
3964.25,0.0187
3964.00,0.0187
3963.75,0.0187
3963.50,0.0187
3963.25,0.0187
3963.00,0.0186
3962.75,0.0185
3962.50,0.0186
3962.25,0.0187
3962.00,0.0189
3961.75,0.0191
3961.50,0.0191
3961.25,0.0190
3961.00,0.0188
3960.75,0.0185
3960.50,0.0184
3960.25,0.0182
3960.00,0.0182
3959.75,0.0183
3959.50,0.0184
3959.25,0.0186
3959.00,0.0187
3958.75,0.0187
3958.50,0.0187
3958.25,0.0186
3958.00,0.0185
3957.75,0.0185
3957.50,0.0184
3957.25,0.0184
3957.00,0.0184
3956.75,0.0184
3956.50,0.0185
3956.25,0.0185
3956.00,0.0185
3955.75,0.0185
3955.50,0.0185
3955.25,0.0185
3955.00,0.0186
3954.75,0.0187
3954.50,0.0188
3954.25,0.0188
3954.00,0.0187
3953.75,0.0186
3953.50,0.0185
3953.25,0.0184
3953.00,0.0184
3952.75,0.0184
3952.50,0.0185
3952.25,0.0187
3952.00,0.0188
3951.75,0.0189
3951.50,0.0189
3951.25,0.0188
3951.00,0.0187
3950.75,0.0186
3950.50,0.0185
3950.25,0.0184
3950.00,0.0182
3949.75,0.0181
3949.50,0.0181
3949.25,0.0183
3949.00,0.0185
3948.75,0.0187
3948.50,0.0188
3948.25,0.0189
3948.00,0.0189
3947.75,0.0189
3947.50,0.0188
3947.25,0.0187
3947.00,0.0185
3946.75,0.0183
3946.50,0.0183
3946.25,0.0183
3946.00,0.0184
3945.75,0.0186
3945.50,0.0186
3945.25,0.0187
3945.00,0.0187
3944.75,0.0186
3944.50,0.0186
3944.25,0.0186
3944.00,0.0187
3943.75,0.0188
3943.50,0.0188
3943.25,0.0188
3943.00,0.0187
3942.75,0.0187
3942.50,0.0187
3942.25,0.0187
3942.00,0.0188
3941.75,0.0188
3941.50,0.0189
3941.25,0.0189
3941.00,0.0188
3940.75,0.0188
3940.50,0.0187
3940.25,0.0186
3940.00,0.0185
3939.75,0.0184
3939.50,0.0184
3939.25,0.0184
3939.00,0.0184
3938.75,0.0185
3938.50,0.0186
3938.25,0.0188
3938.00,0.0189
3937.75,0.0189
3937.50,0.0189
3937.25,0.0187
3937.00,0.0185
3936.75,0.0184
3936.50,0.0182
3936.25,0.0182
3936.00,0.0182
3935.75,0.0184
3935.50,0.0186
3935.25,0.0187
3935.00,0.0188
3934.75,0.0188
3934.50,0.0187
3934.25,0.0186
3934.00,0.0186
3933.75,0.0186
3933.50,0.0186
3933.25,0.0186
3933.00,0.0186
3932.75,0.0187
3932.50,0.0188
3932.25,0.0188
3932.00,0.0188
3931.75,0.0187
3931.50,0.0187
3931.25,0.0188
3931.00,0.0188
3930.75,0.0189
3930.50,0.0190
3930.25,0.0191
3930.00,0.0191
3929.75,0.0190
3929.50,0.0188
3929.25,0.0186
3929.00,0.0185
3928.75,0.0184
3928.50,0.0184
3928.25,0.0184
3928.00,0.0184
3927.75,0.0184
3927.50,0.0184
3927.25,0.0184
3927.00,0.0184
3926.75,0.0184
3926.50,0.0185
3926.25,0.0185
3926.00,0.0184
3925.75,0.0184
3925.50,0.0184
3925.25,0.0185
3925.00,0.0185
3924.75,0.0185
3924.50,0.0185
3924.25,0.0186
3924.00,0.0187
3923.75,0.0188
3923.50,0.0189
3923.25,0.0190
3923.00,0.0191
3922.75,0.0191
3922.50,0.0190
3922.25,0.0188
3922.00,0.0185
3921.75,0.0182
3921.50,0.0181
3921.25,0.0181
3921.00,0.0183
3920.75,0.0185
3920.50,0.0187
3920.25,0.0188
3920.00,0.0189
3919.75,0.0188
3919.50,0.0187
3919.25,0.0187
3919.00,0.0187
3918.75,0.0188
3918.50,0.0188
3918.25,0.0187
3918.00,0.0187
3917.75,0.0186
3917.50,0.0186
3917.25,0.0187
3917.00,0.0187
3916.75,0.0187
3916.50,0.0187
3916.25,0.0187
3916.00,0.0187
3915.75,0.0188
3915.50,0.0189
3915.25,0.0189
3915.00,0.0188
3914.75,0.0186
3914.50,0.0185
3914.25,0.0184
3914.00,0.0184
3913.75,0.0183
3913.50,0.0183
3913.25,0.0184
3913.00,0.0184
3912.75,0.0185
3912.50,0.0186
3912.25,0.0186
3912.00,0.0186
3911.75,0.0186
3911.50,0.0187
3911.25,0.0187
3911.00,0.0188
3910.75,0.0188
3910.50,0.0187
3910.25,0.0187
3910.00,0.0187
3909.75,0.0187
3909.50,0.0187
3909.25,0.0186
3909.00,0.0185
3908.75,0.0185
3908.50,0.0185
3908.25,0.0185
3908.00,0.0185
3907.75,0.0185
3907.50,0.0185
3907.25,0.0186
3907.00,0.0186
3906.75,0.0187
3906.50,0.0186
3906.25,0.0186
3906.00,0.0186
3905.75,0.0187
3905.50,0.0187
3905.25,0.0186
3905.00,0.0186
3904.75,0.0186
3904.50,0.0188
3904.25,0.0191
3904.00,0.0195
3903.75,0.0196
3903.50,0.0196
3903.25,0.0195
3903.00,0.0195
3902.75,0.0195
3902.50,0.0196
3902.25,0.0198
3902.00,0.0199
3901.75,0.0198
3901.50,0.0195
3901.25,0.0193
3901.00,0.0192
3900.75,0.0191
3900.50,0.0190
3900.25,0.0190
3900.00,0.0189
3899.75,0.0189
3899.50,0.0189
3899.25,0.0189
3899.00,0.0190
3898.75,0.0190
3898.50,0.0190
3898.25,0.0189
3898.00,0.0188
3897.75,0.0187
3897.50,0.0187
3897.25,0.0186
3897.00,0.0185
3896.75,0.0184
3896.50,0.0184
3896.25,0.0184
3896.00,0.0185
3895.75,0.0187
3895.50,0.0188
3895.25,0.0189
3895.00,0.0190
3894.75,0.0190
3894.50,0.0190
3894.25,0.0189
3894.00,0.0188
3893.75,0.0187
3893.50,0.0186
3893.25,0.0185
3893.00,0.0185
3892.75,0.0185
3892.50,0.0186
3892.25,0.0186
3892.00,0.0187
3891.75,0.0189
3891.50,0.0191
3891.25,0.0192
3891.00,0.0192
3890.75,0.0191
3890.50,0.0191
3890.25,0.0191
3890.00,0.0191
3889.75,0.0191
3889.50,0.0191
3889.25,0.0190
3889.00,0.0188
3888.75,0.0186
3888.50,0.0185
3888.25,0.0183
3888.00,0.0183
3887.75,0.0183
3887.50,0.0185
3887.25,0.0186
3887.00,0.0188
3886.75,0.0189
3886.50,0.0191
3886.25,0.0192
3886.00,0.0193
3885.75,0.0193
3885.50,0.0192
3885.25,0.0190
3885.00,0.0189
3884.75,0.0189
3884.50,0.0188
3884.25,0.0188
3884.00,0.0187
3883.75,0.0187
3883.50,0.0187
3883.25,0.0187
3883.00,0.0189
3882.75,0.0190
3882.50,0.0191
3882.25,0.0190
3882.00,0.0190
3881.75,0.0189
3881.50,0.0189
3881.25,0.0189
3881.00,0.0190
3880.75,0.0189
3880.50,0.0187
3880.25,0.0184
3880.00,0.0181
3879.75,0.0180
3879.50,0.0181
3879.25,0.0183
3879.00,0.0185
3878.75,0.0186
3878.50,0.0186
3878.25,0.0186
3878.00,0.0185
3877.75,0.0184
3877.50,0.0184
3877.25,0.0184
3877.00,0.0184
3876.75,0.0185
3876.50,0.0184
3876.25,0.0183
3876.00,0.0182
3875.75,0.0182
3875.50,0.0183
3875.25,0.0184
3875.00,0.0186
3874.75,0.0187
3874.50,0.0189
3874.25,0.0190
3874.00,0.0190
3873.75,0.0190
3873.50,0.0190
3873.25,0.0190
3873.00,0.0190
3872.75,0.0190
3872.50,0.0189
3872.25,0.0189
3872.00,0.0188
3871.75,0.0187
3871.50,0.0186
3871.25,0.0185
3871.00,0.0185
3870.75,0.0185
3870.50,0.0187
3870.25,0.0191
3870.00,0.0197
3869.75,0.0203
3869.50,0.0206
3869.25,0.0205
3869.00,0.0201
3868.75,0.0197
3868.50,0.0193
3868.25,0.0189
3868.00,0.0187
3867.75,0.0186
3867.50,0.0185
3867.25,0.0185
3867.00,0.0186
3866.75,0.0186
3866.50,0.0185
3866.25,0.0185
3866.00,0.0184
3865.75,0.0184
3865.50,0.0184
3865.25,0.0184
3865.00,0.0183
3864.75,0.0182
3864.50,0.0182
3864.25,0.0183
3864.00,0.0185
3863.75,0.0186
3863.50,0.0186
3863.25,0.0186
3863.00,0.0186
3862.75,0.0187
3862.50,0.0188
3862.25,0.0190
3862.00,0.0191
3861.75,0.0191
3861.50,0.0192
3861.25,0.0193
3861.00,0.0193
3860.75,0.0193
3860.50,0.0192
3860.25,0.0190
3860.00,0.0188
3859.75,0.0186
3859.50,0.0185
3859.25,0.0184
3859.00,0.0184
3858.75,0.0183
3858.50,0.0182
3858.25,0.0182
3858.00,0.0183
3857.75,0.0183
3857.50,0.0184
3857.25,0.0186
3857.00,0.0188
3856.75,0.0189
3856.50,0.0189
3856.25,0.0187
3856.00,0.0186
3855.75,0.0184
3855.50,0.0183
3855.25,0.0182
3855.00,0.0183
3854.75,0.0186
3854.50,0.0193
3854.25,0.0204
3854.00,0.0214
3853.75,0.0215
3853.50,0.0209
3853.25,0.0203
3853.00,0.0198
3852.75,0.0194
3852.50,0.0190
3852.25,0.0184
3852.00,0.0178
3851.75,0.0176
3851.50,0.0180
3851.25,0.0185
3851.00,0.0188
3850.75,0.0191
3850.50,0.0191
3850.25,0.0190
3850.00,0.0188
3849.75,0.0186
3849.50,0.0184
3849.25,0.0183
3849.00,0.0184
3848.75,0.0186
3848.50,0.0188
3848.25,0.0190
3848.00,0.0190
3847.75,0.0189
3847.50,0.0187
3847.25,0.0185
3847.00,0.0184
3846.75,0.0183
3846.50,0.0183
3846.25,0.0183
3846.00,0.0183
3845.75,0.0183
3845.50,0.0184
3845.25,0.0186
3845.00,0.0187
3844.75,0.0188
3844.50,0.0186
3844.25,0.0184
3844.00,0.0181
3843.75,0.0180
3843.50,0.0182
3843.25,0.0186
3843.00,0.0189
3842.75,0.0191
3842.50,0.0191
3842.25,0.0190
3842.00,0.0188
3841.75,0.0187
3841.50,0.0186
3841.25,0.0186
3841.00,0.0186
3840.75,0.0188
3840.50,0.0189
3840.25,0.0189
3840.00,0.0188
3839.75,0.0188
3839.50,0.0189
3839.25,0.0190
3839.00,0.0191
3838.75,0.0190
3838.50,0.0189
3838.25,0.0189
3838.00,0.0191
3837.75,0.0194
3837.50,0.0192
3837.25,0.0187
3837.00,0.0185
3836.75,0.0184
3836.50,0.0185
3836.25,0.0186
3836.00,0.0186
3835.75,0.0184
3835.50,0.0182
3835.25,0.0180
3835.00,0.0179
3834.75,0.0181
3834.50,0.0185
3834.25,0.0188
3834.00,0.0189
3833.75,0.0188
3833.50,0.0187
3833.25,0.0186
3833.00,0.0187
3832.75,0.0187
3832.50,0.0186
3832.25,0.0185
3832.00,0.0184
3831.75,0.0183
3831.50,0.0182
3831.25,0.0184
3831.00,0.0187
3830.75,0.0190
3830.50,0.0192
3830.25,0.0193
3830.00,0.0193
3829.75,0.0192
3829.50,0.0190
3829.25,0.0188
3829.00,0.0187
3828.75,0.0187
3828.50,0.0186
3828.25,0.0186
3828.00,0.0185
3827.75,0.0184
3827.50,0.0183
3827.25,0.0181
3827.00,0.0180
3826.75,0.0179
3826.50,0.0179
3826.25,0.0181
3826.00,0.0182
3825.75,0.0183
3825.50,0.0184
3825.25,0.0184
3825.00,0.0184
3824.75,0.0185
3824.50,0.0185
3824.25,0.0185
3824.00,0.0185
3823.75,0.0185
3823.50,0.0186
3823.25,0.0185
3823.00,0.0185
3822.75,0.0184
3822.50,0.0184
3822.25,0.0184
3822.00,0.0186
3821.75,0.0188
3821.50,0.0188
3821.25,0.0187
3821.00,0.0185
3820.75,0.0184
3820.50,0.0183
3820.25,0.0184
3820.00,0.0185
3819.75,0.0185
3819.50,0.0184
3819.25,0.0184
3819.00,0.0184
3818.75,0.0185
3818.50,0.0186
3818.25,0.0188
3818.00,0.0189
3817.75,0.0189
3817.50,0.0189
3817.25,0.0186
3817.00,0.0183
3816.75,0.0178
3816.50,0.0173
3816.25,0.0169
3816.00,0.0168
3815.75,0.0171
3815.50,0.0177
3815.25,0.0181
3815.00,0.0184
3814.75,0.0186
3814.50,0.0187
3814.25,0.0188
3814.00,0.0188
3813.75,0.0187
3813.50,0.0186
3813.25,0.0185
3813.00,0.0185
3812.75,0.0185
3812.50,0.0185
3812.25,0.0185
3812.00,0.0185
3811.75,0.0184
3811.50,0.0183
3811.25,0.0183
3811.00,0.0184
3810.75,0.0186
3810.50,0.0187
3810.25,0.0188
3810.00,0.0189
3809.75,0.0190
3809.50,0.0190
3809.25,0.0191
3809.00,0.0190
3808.75,0.0189
3808.50,0.0187
3808.25,0.0185
3808.00,0.0182
3807.75,0.0180
3807.50,0.0179
3807.25,0.0181
3807.00,0.0183
3806.75,0.0186
3806.50,0.0187
3806.25,0.0188
3806.00,0.0188
3805.75,0.0190
3805.50,0.0191
3805.25,0.0192
3805.00,0.0192
3804.75,0.0191
3804.50,0.0190
3804.25,0.0188
3804.00,0.0187
3803.75,0.0186
3803.50,0.0184
3803.25,0.0183
3803.00,0.0182
3802.75,0.0182
3802.50,0.0183
3802.25,0.0182
3802.00,0.0180
3801.75,0.0175
3801.50,0.0169
3801.25,0.0167
3801.00,0.0171
3800.75,0.0178
3800.50,0.0183
3800.25,0.0186
3800.00,0.0188
3799.75,0.0188
3799.50,0.0188
3799.25,0.0186
3799.00,0.0185
3798.75,0.0183
3798.50,0.0183
3798.25,0.0184
3798.00,0.0186
3797.75,0.0188
3797.50,0.0189
3797.25,0.0189
3797.00,0.0188
3796.75,0.0186
3796.50,0.0184
3796.25,0.0183
3796.00,0.0183
3795.75,0.0184
3795.50,0.0185
3795.25,0.0186
3795.00,0.0186
3794.75,0.0185
3794.50,0.0183
3794.25,0.0182
3794.00,0.0182
3793.75,0.0182
3793.50,0.0182
3793.25,0.0183
3793.00,0.0184
3792.75,0.0185
3792.50,0.0187
3792.25,0.0188
3792.00,0.0188
3791.75,0.0189
3791.50,0.0188
3791.25,0.0188
3791.00,0.0187
3790.75,0.0187
3790.50,0.0187
3790.25,0.0187
3790.00,0.0187
3789.75,0.0187
3789.50,0.0186
3789.25,0.0185
3789.00,0.0184
3788.75,0.0183
3788.50,0.0182
3788.25,0.0182
3788.00,0.0183
3787.75,0.0184
3787.50,0.0185
3787.25,0.0186
3787.00,0.0185
3786.75,0.0185
3786.50,0.0184
3786.25,0.0185
3786.00,0.0186
3785.75,0.0187
3785.50,0.0187
3785.25,0.0186
3785.00,0.0185
3784.75,0.0183
3784.50,0.0182
3784.25,0.0181
3784.00,0.0181
3783.75,0.0183
3783.50,0.0185
3783.25,0.0186
3783.00,0.0187
3782.75,0.0188
3782.50,0.0189
3782.25,0.0190
3782.00,0.0190
3781.75,0.0189
3781.50,0.0186
3781.25,0.0183
3781.00,0.0182
3780.75,0.0181
3780.50,0.0181
3780.25,0.0182
3780.00,0.0183
3779.75,0.0185
3779.50,0.0186
3779.25,0.0187
3779.00,0.0187
3778.75,0.0188
3778.50,0.0188
3778.25,0.0187
3778.00,0.0186
3777.75,0.0185
3777.50,0.0185
3777.25,0.0186
3777.00,0.0188
3776.75,0.0190
3776.50,0.0190
3776.25,0.0189
3776.00,0.0188
3775.75,0.0186
3775.50,0.0186
3775.25,0.0186
3775.00,0.0187
3774.75,0.0187
3774.50,0.0187
3774.25,0.0187
3774.00,0.0188
3773.75,0.0188
3773.50,0.0187
3773.25,0.0186
3773.00,0.0184
3772.75,0.0183
3772.50,0.0182
3772.25,0.0182
3772.00,0.0183
3771.75,0.0184
3771.50,0.0185
3771.25,0.0187
3771.00,0.0188
3770.75,0.0189
3770.50,0.0188
3770.25,0.0187
3770.00,0.0184
3769.75,0.0181
3769.50,0.0180
3769.25,0.0182
3769.00,0.0184
3768.75,0.0187
3768.50,0.0188
3768.25,0.0189
3768.00,0.0189
3767.75,0.0189
3767.50,0.0188
3767.25,0.0188
3767.00,0.0188
3766.75,0.0189
3766.50,0.0189
3766.25,0.0190
3766.00,0.0190
3765.75,0.0188
3765.50,0.0186
3765.25,0.0184
3765.00,0.0184
3764.75,0.0186
3764.50,0.0188
3764.25,0.0190
3764.00,0.0191
3763.75,0.0191
3763.50,0.0190
3763.25,0.0188
3763.00,0.0185
3762.75,0.0183
3762.50,0.0183
3762.25,0.0183
3762.00,0.0185
3761.75,0.0188
3761.50,0.0190
3761.25,0.0191
3761.00,0.0192
3760.75,0.0192
3760.50,0.0191
3760.25,0.0188
3760.00,0.0184
3759.75,0.0180
3759.50,0.0179
3759.25,0.0181
3759.00,0.0184
3758.75,0.0187
3758.50,0.0188
3758.25,0.0188
3758.00,0.0187
3757.75,0.0186
3757.50,0.0185
3757.25,0.0185
3757.00,0.0186
3756.75,0.0187
3756.50,0.0188
3756.25,0.0189
3756.00,0.0190
3755.75,0.0191
3755.50,0.0192
3755.25,0.0192
3755.00,0.0191
3754.75,0.0191
3754.50,0.0189
3754.25,0.0187
3754.00,0.0186
3753.75,0.0185
3753.50,0.0185
3753.25,0.0185
3753.00,0.0184
3752.75,0.0183
3752.50,0.0181
3752.25,0.0178
3752.00,0.0177
3751.75,0.0178
3751.50,0.0181
3751.25,0.0185
3751.00,0.0188
3750.75,0.0191
3750.50,0.0192
3750.25,0.0192
3750.00,0.0191
3749.75,0.0190
3749.50,0.0186
3749.25,0.0182
3749.00,0.0181
3748.75,0.0184
3748.50,0.0188
3748.25,0.0190
3748.00,0.0191
3747.75,0.0191
3747.50,0.0189
3747.25,0.0187
3747.00,0.0186
3746.75,0.0186
3746.50,0.0186
3746.25,0.0187
3746.00,0.0189
3745.75,0.0192
3745.50,0.0196
3745.25,0.0203
3745.00,0.0215
3744.75,0.0233
3744.50,0.0250
3744.25,0.0240
3744.00,0.0216
3743.75,0.0207
3743.50,0.0204
3743.25,0.0201
3743.00,0.0199
3742.75,0.0196
3742.50,0.0193
3742.25,0.0192
3742.00,0.0191
3741.75,0.0190
3741.50,0.0189
3741.25,0.0190
3741.00,0.0191
3740.75,0.0194
3740.50,0.0195
3740.25,0.0195
3740.00,0.0194
3739.75,0.0191
3739.50,0.0187
3739.25,0.0184
3739.00,0.0181
3738.75,0.0180
3738.50,0.0180
3738.25,0.0182
3738.00,0.0185
3737.75,0.0188
3737.50,0.0189
3737.25,0.0188
3737.00,0.0188
3736.75,0.0187
3736.50,0.0188
3736.25,0.0190
3736.00,0.0192
3735.75,0.0194
3735.50,0.0196
3735.25,0.0198
3735.00,0.0198
3734.75,0.0195
3734.50,0.0191
3734.25,0.0188
3734.00,0.0187
3733.75,0.0188
3733.50,0.0188
3733.25,0.0190
3733.00,0.0190
3732.75,0.0191
3732.50,0.0190
3732.25,0.0189
3732.00,0.0188
3731.75,0.0187
3731.50,0.0186
3731.25,0.0186
3731.00,0.0186
3730.75,0.0187
3730.50,0.0189
3730.25,0.0190
3730.00,0.0190
3729.75,0.0189
3729.50,0.0187
3729.25,0.0187
3729.00,0.0187
3728.75,0.0187
3728.50,0.0188
3728.25,0.0188
3728.00,0.0188
3727.75,0.0188
3727.50,0.0189
3727.25,0.0190
3727.00,0.0191
3726.75,0.0192
3726.50,0.0193
3726.25,0.0194
3726.00,0.0194
3725.75,0.0193
3725.50,0.0192
3725.25,0.0190
3725.00,0.0189
3724.75,0.0189
3724.50,0.0190
3724.25,0.0191
3724.00,0.0191
3723.75,0.0192
3723.50,0.0193
3723.25,0.0194
3723.00,0.0194
3722.75,0.0194
3722.50,0.0191
3722.25,0.0186
3722.00,0.0182
3721.75,0.0181
3721.50,0.0182
3721.25,0.0182
3721.00,0.0182
3720.75,0.0181
3720.50,0.0182
3720.25,0.0182
3720.00,0.0184
3719.75,0.0185
3719.50,0.0186
3719.25,0.0186
3719.00,0.0186
3718.75,0.0186
3718.50,0.0186
3718.25,0.0185
3718.00,0.0185
3717.75,0.0183
3717.50,0.0183
3717.25,0.0182
3717.00,0.0183
3716.75,0.0184
3716.50,0.0186
3716.25,0.0187
3716.00,0.0188
3715.75,0.0189
3715.50,0.0190
3715.25,0.0190
3715.00,0.0189
3714.75,0.0188
3714.50,0.0187
3714.25,0.0186
3714.00,0.0186
3713.75,0.0186
3713.50,0.0186
3713.25,0.0185
3713.00,0.0184
3712.75,0.0182
3712.50,0.0182
3712.25,0.0185
3712.00,0.0189
3711.75,0.0193
3711.50,0.0193
3711.25,0.0192
3711.00,0.0191
3710.75,0.0191
3710.50,0.0192
3710.25,0.0193
3710.00,0.0194
3709.75,0.0193
3709.50,0.0192
3709.25,0.0190
3709.00,0.0189
3708.75,0.0189
3708.50,0.0190
3708.25,0.0191
3708.00,0.0191
3707.75,0.0191
3707.50,0.0191
3707.25,0.0191
3707.00,0.0191
3706.75,0.0190
3706.50,0.0189
3706.25,0.0188
3706.00,0.0188
3705.75,0.0189
3705.50,0.0190
3705.25,0.0189
3705.00,0.0188
3704.75,0.0187
3704.50,0.0188
3704.25,0.0188
3704.00,0.0188
3703.75,0.0188
3703.50,0.0188
3703.25,0.0188
3703.00,0.0187
3702.75,0.0186
3702.50,0.0185
3702.25,0.0184
3702.00,0.0184
3701.75,0.0184
3701.50,0.0185
3701.25,0.0187
3701.00,0.0188
3700.75,0.0187
3700.50,0.0186
3700.25,0.0184
3700.00,0.0183
3699.75,0.0183
3699.50,0.0183
3699.25,0.0184
3699.00,0.0186
3698.75,0.0188
3698.50,0.0190
3698.25,0.0191
3698.00,0.0191
3697.75,0.0190
3697.50,0.0188
3697.25,0.0188
3697.00,0.0187
3696.75,0.0187
3696.50,0.0187
3696.25,0.0187
3696.00,0.0188
3695.75,0.0189
3695.50,0.0191
3695.25,0.0191
3695.00,0.0191
3694.75,0.0190
3694.50,0.0189
3694.25,0.0189
3694.00,0.0188
3693.75,0.0189
3693.50,0.0189
3693.25,0.0189
3693.00,0.0189
3692.75,0.0187
3692.50,0.0186
3692.25,0.0184
3692.00,0.0183
3691.75,0.0183
3691.50,0.0184
3691.25,0.0184
3691.00,0.0183
3690.75,0.0184
3690.50,0.0186
3690.25,0.0188
3690.00,0.0190
3689.75,0.0189
3689.50,0.0187
3689.25,0.0183
3689.00,0.0180
3688.75,0.0177
3688.50,0.0179
3688.25,0.0184
3688.00,0.0190
3687.75,0.0193
3687.50,0.0194
3687.25,0.0193
3687.00,0.0191
3686.75,0.0191
3686.50,0.0190
3686.25,0.0188
3686.00,0.0187
3685.75,0.0186
3685.50,0.0185
3685.25,0.0186
3685.00,0.0187
3684.75,0.0187
3684.50,0.0188
3684.25,0.0187
3684.00,0.0186
3683.75,0.0186
3683.50,0.0186
3683.25,0.0187
3683.00,0.0187
3682.75,0.0187
3682.50,0.0188
3682.25,0.0188
3682.00,0.0187
3681.75,0.0186
3681.50,0.0185
3681.25,0.0184
3681.00,0.0184
3680.75,0.0183
3680.50,0.0183
3680.25,0.0183
3680.00,0.0182
3679.75,0.0182
3679.50,0.0182
3679.25,0.0182
3679.00,0.0183
3678.75,0.0184
3678.50,0.0185
3678.25,0.0186
3678.00,0.0187
3677.75,0.0186
3677.50,0.0184
3677.25,0.0182
3677.00,0.0179
3676.75,0.0178
3676.50,0.0178
3676.25,0.0181
3676.00,0.0186
3675.75,0.0193
3675.50,0.0202
3675.25,0.0209
3675.00,0.0211
3674.75,0.0208
3674.50,0.0203
3674.25,0.0199
3674.00,0.0197
3673.75,0.0195
3673.50,0.0193
3673.25,0.0191
3673.00,0.0189
3672.75,0.0186
3672.50,0.0185
3672.25,0.0185
3672.00,0.0186
3671.75,0.0186
3671.50,0.0186
3671.25,0.0184
3671.00,0.0185
3670.75,0.0188
3670.50,0.0195
3670.25,0.0199
3670.00,0.0199
3669.75,0.0197
3669.50,0.0194
3669.25,0.0192
3669.00,0.0191
3668.75,0.0191
3668.50,0.0191
